#Wave		#Intensity
3200.600830	16.839409
3200.007080	29.468966
3199.413086	29.464512
3198.819092	16.834320
3198.224854	16.831776
3197.630615	16.829231
3197.036377	29.446701
3196.442139	29.442251
3195.847656	29.437799
3195.252930	0.000000
3194.658447	37.837154
3194.063721	37.831436
3193.468750	4.202857
3192.873779	25.213329
3192.278809	33.612690
3191.683838	37.808559
3191.088623	37.802841
3190.493164	29.397762
3189.897949	54.587585
3189.302490	46.182510
3188.706787	46.175526
3188.111328	20.985701
3187.515381	12.589515
3186.919678	37.762833
3186.323730	20.976177
3185.727783	29.362206
3185.131592	33.551727
3184.535400	33.546650
3183.939209	33.541576
3183.342773	33.536499
3182.746338	29.339996
3182.149902	25.144762
3181.553223	37.711437
3180.956543	16.758101
3180.359619	33.511131
3179.762695	25.129543
3179.165771	29.313362
3178.568604	20.934946
3177.971436	16.745420
3177.374268	12.557164
3176.776855	25.110527
3176.179443	12.553363
3175.581787	50.205845
3174.984131	25.099123
3174.386475	46.008091
3173.788574	41.819202
3173.190674	29.269009
3172.592773	25.083921
3171.994629	20.900103
3171.396484	20.896936
3170.798340	37.608788
3170.199951	29.246849
3169.601563	50.129860
3169.002930	50.122265
3168.404297	20.881113
3167.805664	20.877949
3167.206787	12.524872
3166.607910	29.220272
3166.008789	33.389538
3165.409912	54.249775
3164.810547	41.724270
3164.211426	12.515385
3163.612061	33.369301
3163.012695	29.193712
3162.413086	25.019390
3161.813477	33.354130
3161.213623	33.349072
3160.614014	33.344017
3160.013916	0.000000
3159.414063	20.833693
3158.813965	20.830534
3158.213867	16.661900
3157.613525	12.494531
3157.013184	8.328424
3156.412598	24.981483
3155.812256	20.814745
3155.211426	41.623177
3154.610840	45.778549
3154.010010	20.805275
3153.409180	45.764664
3152.808105	24.958757
3152.207031	16.636648
3151.605957	24.951185
3151.004639	41.579002
3150.403320	37.415424
3149.801758	58.192940
3149.200195	45.716087
3148.598633	12.466131
3147.996826	45.702213
3147.395020	24.924696
3146.793213	12.460457
3146.191162	41.528553
3145.589111	0.000000
3144.986816	49.819138
3144.384766	37.358681
3143.782227	24.902008
3143.179932	37.347340
3142.577393	33.192596
3141.974609	20.742224
3141.371826	53.921593
3140.769043	12.441555
3140.166260	33.172443
3139.563232	41.459255
3138.960205	33.162369
3138.356934	20.723333
3137.753662	0.000000
3137.150391	16.573631
3136.546875	28.999449
3135.943359	24.852896
3135.339600	24.849121
3134.735840	20.704454
3134.132080	49.683144
3133.528076	24.837797
3132.924072	28.973028
3132.320068	49.660503
3131.715820	24.826479
3131.111572	20.685589
3130.507080	33.091911
3129.902588	16.543442
3129.298096	37.217087
3128.693604	37.211430
3128.088867	37.205776
3127.483887	33.066772
3126.878906	66.123497
3126.273926	53.717175
3125.668945	33.051697
3125.063721	45.439175
3124.458252	28.911442
3123.853027	16.518312
3123.247559	24.773701
3122.641846	33.026581
3122.036133	45.404640
3121.430420	16.508268
3120.824707	41.264393
3120.218750	45.383930
3119.612549	20.625921
3119.006592	32.996456
3118.400391	24.743578
3117.793945	49.479630
3117.187500	20.613377
3116.581055	32.976383
3115.974609	32.971367
3115.367920	24.724764
3114.760986	20.600836
3114.154297	37.075859
3113.547363	41.189133
3112.940186	16.473146
3112.333008	37.058937
3111.725830	32.936264
3111.118408	28.814846
3110.510986	41.157803
3109.903564	41.151539
3109.295898	24.687164
3108.688232	37.025108
3108.080566	20.566374
3107.472656	32.901188
3106.864746	37.008202
3106.256592	45.225361
3105.648438	49.329247
3105.040039	32.881157
3104.431885	20.547594
3103.823486	24.653358
3103.214844	32.866138
3102.606201	16.430567
3101.997559	8.214032
3101.388672	20.531952
3100.779785	49.269180
3100.170898	24.630838
3099.561768	16.418058
3098.952637	32.831112
3098.343262	28.722847
3097.733887	45.129028
3097.124512	36.918125
3096.514893	57.419445
3095.905273	41.007637
3095.295410	36.901253
3094.685791	24.597086
3094.075684	32.791115
3093.465820	40.982647
3092.855713	32.781120
3092.245361	28.679110
3091.635254	49.156693
3091.024658	36.861900
3090.414307	69.617424
3089.803711	36.850662
3089.193115	45.032833
3088.582275	36.839428
3087.971436	49.111748
3087.360596	36.828194
3086.749512	28.639784
3086.138428	20.453869
3085.527100	24.540901
3084.915771	24.537157
3084.304443	28.622318
3083.692871	20.441395
3083.081299	44.964211
3082.469482	20.435160
3081.857910	65.382538
3081.245850	4.085785
3080.634033	36.766457
3080.021973	20.422693
3079.409668	69.426559
3078.797607	28.583046
3078.185059	36.744022
3077.572754	44.902508
3076.960205	57.139927
3076.347656	48.969604
3075.734863	69.363022
3075.122070	16.318220
3074.509033	36.710392
3073.895996	44.861408
3073.282959	44.854561
3072.669922	16.308260
3072.056641	44.840866
3071.443115	28.530741
3070.829834	32.601582
3070.216064	28.522030
3069.602539	32.591629
3068.988770	28.513319
3068.375000	40.727093
3067.760986	48.865051
3067.146973	48.857586
3066.532715	8.141687
3065.918701	52.912888
3065.304199	28.487202
3064.689941	36.620808
3064.075439	40.683571
3063.460693	40.677357
3062.846191	40.671143
3062.231445	44.731422
3061.616455	12.197615
3061.001465	12.195751
3060.386475	40.646294
3059.771240	28.448057
3059.156006	20.316936
3058.540771	28.439363
3057.925293	32.497162
3057.309814	36.553719
3056.694092	24.365421
3056.078369	64.964523
3055.462646	20.298311
3054.846680	40.590416
3054.230713	32.467369
3053.614502	28.404606
3052.998291	40.571804
3052.382080	52.735279
3051.765625	24.335638
3051.149170	56.774475
3050.532715	28.382896
3049.916016	24.324476
3049.299316	4.053459
3048.682373	32.422714
3048.065430	44.574417
3047.448486	36.464397
3046.831299	40.509800
3046.214111	36.453243
3045.596680	60.746113
3044.979248	48.589455
3044.361816	28.339512
3043.744141	36.430943
3043.126465	48.567154
3042.508545	40.466438
3041.890869	20.230122
3041.272705	60.681080
3040.654785	28.313503
3040.036621	44.485840
3039.418213	32.348385
3038.799805	20.214647
3038.181396	72.761589
3037.562988	28.291842
3036.944336	48.492874
3036.325439	20.202272
3035.706543	20.199179
3035.087646	64.627480
3034.468750	60.578983
3033.849609	44.417786
3033.230469	56.523067
3032.611084	44.404182
3031.991699	32.289005
3031.372070	68.603630
3030.752441	24.209337
3030.132813	40.342716
3029.513184	48.403843
3028.893066	40.330357
3028.273193	28.226925
3027.653076	40.318001
3027.032959	28.218277
3026.412598	44.336212
3025.792480	28.209631
3025.171875	40.293297
3024.551270	36.258411
3023.930664	40.280949
3023.310059	40.274776
3022.689209	48.322327
3022.068115	36.236191
3021.447266	32.205009
3020.826172	36.225082
3020.204834	60.365883
3019.583496	44.261528
3018.962158	56.324219
3018.340576	36.202873
3017.718994	32.175400
3017.097412	40.213081
3016.475586	48.248302
3015.853760	68.341278
3015.231689	64.311340
3014.609619	40.188423
3013.987549	40.182259
3013.365234	64.281754
3012.742920	36.152943
3012.120361	44.180153
3011.497803	72.283707
3010.875244	64.242325
3010.252441	36.130764
3009.629639	48.166962
3009.006836	40.132977
3008.383789	72.228271
3007.760498	48.144794
3007.137451	36.103054
3006.514160	56.151691
3005.890625	48.122635
3005.267090	40.096043
3004.643555	20.044945
3004.019775	48.100483
3003.395996	36.069824
3002.772217	28.050001
3002.148193	64.104446
3001.524170	40.059128
3000.899902	56.074169
3000.275635	44.051514
2999.651367	56.056953
2999.026855	52.044895
2998.402344	72.051094
2997.777588	56.031136
2997.152832	48.019314
2996.528076	28.006964
2995.903076	52.004944
2995.278076	27.998362
2994.653076	39.991516
2994.027832	59.978062
2993.402344	63.966770
2992.777100	63.956944
2992.151367	27.976864
2991.525879	63.937294
2990.900146	51.941071
2990.274414	19.974264
2989.648438	59.913589
2989.022461	79.872505
2988.396240	35.937107
2987.770264	47.908775
2987.143799	47.901413
2986.517578	39.911709
2985.891113	55.867805
2985.264404	43.889385
2984.637695	63.829292
2984.010986	67.808197
2983.384033	55.833462
2982.757080	51.837387
2982.130127	39.868782
2981.502930	55.807713
2980.875732	43.842175
2980.248291	55.790550
2979.620850	47.813118
2978.993408	39.838139
2978.365723	63.731216
2977.738037	39.825886
2977.110107	59.729641
2976.482178	39.813633
2975.854248	71.653519
2975.226074	43.781525
2974.597900	59.692894
2973.969482	67.641541
2973.341309	63.652832
2972.712646	91.486870
2972.083984	79.541557
2971.455322	59.646988
2970.826660	71.565369
2970.197754	59.628632
2969.568604	47.695564
2968.939697	43.714203
2968.310547	43.707474
2967.681152	43.700748
2967.051758	59.582756
2966.422363	75.459869
2965.792725	71.477295
2965.163086	59.555244
2964.533203	55.576336
2963.903564	75.413414
2963.273438	71.433289
2962.643311	63.486477
2962.013184	59.509407
2961.383057	79.333656
2960.752686	55.525005
2960.122314	51.550995
2959.491699	83.261856
2958.861084	59.463593
2958.230225	75.308952
2957.599609	75.297348
2956.968506	83.210564
2956.337646	75.274147
2955.706299	47.534245
2955.075195	71.290382
2954.443848	79.199326
2953.812500	79.187126
2953.180908	75.216171
2952.549316	102.911537
2951.917725	91.023094
2951.285889	94.965981
2950.653809	51.431980
2950.021973	71.202530
2949.389893	75.146645
2948.757568	110.725349
2948.125244	94.892815
2947.492920	90.924927
2946.860352	86.958260
2946.227783	98.800964
2945.595215	134.348602
2944.962402	79.016403
2944.329590	122.456535
2943.696533	146.135254
2943.063477	106.622795
2942.430420	98.709587
2941.797119	118.433235
2941.163574	161.833786
2940.530273	153.915710
2939.896729	130.216278
2939.262939	157.813568
2938.629150	134.120834
2937.995361	181.429596
2937.361328	197.175659
2936.727295	161.659088
2936.093262	201.057114
2935.458984	185.259338
2934.824707	200.995056
2934.190186	208.844986
2933.555664	236.391800
2932.921143	212.719772
2932.286377	224.502884
2931.651367	212.654114
2931.016602	259.870453
2930.381592	208.651642
2929.746338	251.917786
2929.111084	228.265244
2928.475830	232.165009
2927.840332	271.473083
2927.204834	224.225739
2926.569336	259.589722
2925.933594	255.617050
2925.297607	255.577576
2924.661865	263.400818
2924.025879	255.498627
2923.389648	275.109863
2922.753418	263.278778
2922.117188	247.522400
2921.480713	267.125763
2920.844238	290.650757
2920.207764	282.751648
2919.571045	286.634460
2918.934082	239.479446
2918.297363	215.890732
2917.660156	235.480759
2917.023193	255.064743
2916.385986	313.877319
2915.748779	294.214508
2915.111328	321.624817
2914.473877	278.436951
2913.836182	309.762268
2913.198486	341.077850
2912.560791	293.987183
2911.922852	250.830261
2911.284912	313.489349
2910.646729	278.178772
2910.008545	309.475006
2909.370361	317.260742
2908.731934	305.463104
2908.093506	340.656158
2907.455078	356.263397
2906.816406	344.465179
2906.177490	305.274170
2905.538574	336.532288
2904.899658	395.168640
2904.260498	359.899902
2903.621338	398.957733
2902.982178	414.539001
2902.342773	379.283600
2901.703369	418.320251
2901.063721	422.164459
2900.424072	398.649170
2899.784424	410.310638
2899.144531	457.132538
2898.504639	472.687836
2897.864502	437.461517
2897.224365	437.393799
2896.583984	449.040192
2895.943848	437.258392
2895.303223	503.549988
2894.662842	507.374908
2894.021973	499.491821
2893.381348	522.824524
2892.740479	468.128571
2892.099609	483.657959
2891.458496	506.982239
2890.817383	475.709656
2890.176025	538.014465
2889.534668	545.727234
2888.893311	510.565674
2888.251709	463.724457
2887.610107	549.369934
2886.968262	549.284790
2886.326416	588.150085
2885.684570	591.953369
2885.042480	642.481384
2884.400391	673.527649
2883.758057	669.530640
2883.115723	700.563049
2882.473389	797.739807
2881.830811	879.323181
2881.188232	988.112732
2880.545410	1026.855591
2879.902588	1205.590576
2879.259766	1380.381592
2878.616699	1302.411743
2877.973633	1348.856201
2877.330322	1158.204102
2876.687012	1053.102783
2876.043457	951.919556
2875.399902	874.076294
2874.756348	815.678040
2874.112549	706.811340
2873.468750	749.414429
2872.824707	636.709351
2872.180664	648.255920
2871.536621	617.106018
2870.892334	620.890869
2870.248047	632.434448
2869.603760	612.939575
2868.958984	558.541809
2868.314453	577.845947
2867.669678	573.878723
2867.024902	535.020081
2866.379883	558.195251
2865.734863	565.860107
2865.089844	608.398987
2864.444580	569.559082
2863.799316	557.848816
2863.153809	534.522156
2862.508301	584.784912
2861.862549	549.844788
2861.216797	588.474915
2860.571045	603.867310
2859.925049	615.384644
2859.279053	642.377258
2858.632813	665.492371
2857.986572	723.417175
2857.340332	676.889587
2856.693848	738.661865
2856.047363	754.014160
2855.400635	661.109680
2854.753906	734.452271
2854.107178	738.203125
2853.460205	780.596191
2852.813232	819.112305
2852.166016	915.563477
2851.518799	849.758118
2850.871338	818.730591
2850.223877	891.968811
2849.576416	938.159058
2848.928711	1046.097168
2848.281006	984.182007
2847.633301	1080.502441
2846.985352	1142.067993
2846.337158	1087.882202
2845.688965	1184.141479
2845.040771	1153.105225
2844.392578	1149.069946
2843.743896	1118.048706
2843.095459	1117.874878
2842.446777	1129.263550
2841.798096	1032.749390
2841.149170	1005.618225
2840.500244	924.562622
2839.851074	932.122314
2839.202148	897.317078
2838.552734	777.810547
2837.903320	777.689575
2837.253906	696.732300
2836.604492	623.497681
2835.954834	604.159912
2835.304932	565.590393
2834.655029	500.104187
2834.005127	492.333679
2833.354980	434.570709
2832.704834	369.135376
2832.054688	392.145325
2831.404297	349.800690
2830.753906	299.782501
2830.103271	307.421387
2829.452637	284.320557
2828.801758	261.226868
2828.150879	272.709137
2827.500000	230.422546
2826.848877	245.745789
2826.197754	203.476563
2825.546387	203.444885
2824.895020	161.195374
2824.243408	195.706772
2823.591797	161.145187
2822.940186	180.301056
2822.288330	164.930603
2821.636475	153.399933
2820.984619	172.548050
2820.332520	141.850739
2819.680176	137.995438
2819.028076	141.806564
2818.375488	134.120453
2817.723145	126.436722
2817.070557	141.740311
2816.417725	130.227554
2815.764893	145.525772
2815.112061	122.528923
2814.458984	118.681404
2813.805908	107.179405
2813.152832	133.953369
2812.499512	114.799286
2811.845947	145.389771
2811.192383	141.541656
2810.538818	107.095917
2809.885010	107.079224
2809.231201	133.828171
2808.577393	110.868912
2807.923340	122.319038
2807.269287	110.834343
2806.614990	122.280899
2805.960693	103.158424
2805.306152	84.041908
2804.651611	129.862686
2803.997070	106.929070
2803.342285	122.185593
2802.687500	95.442612
2802.032471	118.330376
2801.377441	122.128433
2800.722412	106.845711
2800.067139	118.275017
2799.411621	133.515472
2798.756348	102.981583
2798.100586	91.524902
2797.445068	122.014168
2796.789307	106.745743
2796.133301	102.917328
2795.477539	99.090111
2794.821289	110.506340
2794.165283	118.109032
2793.509033	76.187485
2792.852539	102.837051
2792.196045	99.012817
2791.539551	129.458084
2790.882813	102.788902
2790.226074	121.804871
2789.569092	110.368431
2788.912109	98.935555
2788.255127	110.333969
2787.597900	68.472458
2786.940430	117.906380
2786.283203	102.676613
2785.625488	121.671799
2784.968018	114.049500
2784.310303	95.026405
2783.652588	98.812027
2782.994629	113.996071
2782.336426	129.175369
2781.678467	121.557823
2781.020264	91.154121
2780.361816	113.924850
2779.703369	106.313248
2779.044922	106.296638
2778.386230	106.280029
2777.727539	110.058540
2777.068604	113.835876
2776.409668	79.672661
2775.750732	110.006950
2775.091553	125.160759
2774.432373	121.349037
2773.772949	106.163811
2773.113525	132.684021
2772.453857	94.759483
2771.794189	109.903816
2771.134521	94.729858
2770.474609	94.715050
2769.814697	121.216301
2769.154541	128.772186
2768.494385	136.325699
2767.833984	124.945679
2767.173584	109.783577
2766.513184	94.626213
2765.852539	105.964783
2765.191895	83.245018
2764.531006	102.148361
2763.870117	136.176514
2763.209229	109.680580
2762.548096	86.974442
2761.886719	90.741737
2761.225586	86.947227
2760.563965	105.832230
2759.902588	105.815674
2759.240967	113.356194
2758.579102	94.448708
2757.917236	120.875427
2757.255371	120.856506
2756.593262	90.628189
2755.931152	151.023346
2755.269043	98.149803
2754.606689	120.780853
2753.944092	124.535751
2753.281494	132.062698
2752.618896	120.724129
2751.956055	113.161148
2751.293213	94.286194
2750.630371	143.292572
2749.967285	139.499863
2749.303955	124.399307
2748.640625	131.917999
2747.977295	143.202820
2747.313721	113.037148
2746.650146	101.717499
2745.986572	116.768463
2745.322754	116.750168
2744.658691	128.028503
2743.994873	94.123863
2743.330566	143.045853
2742.666504	146.787216
2742.002197	135.474655
2741.337646	165.554184
2740.673096	146.718216
2740.008545	161.740875
2739.343750	124.107262
2738.678955	127.848045
2738.013916	142.866592
2737.348877	146.603256
2736.683594	131.546402
2736.018311	135.283661
2735.353027	120.233284
2734.687500	146.511337
2734.021973	172.781143
2733.356201	146.465393
2732.690430	123.912819
2732.024658	157.682495
2731.358643	198.949081
2730.692383	153.879868
2730.026367	180.123779
2729.359863	187.599503
2728.693604	202.575684
2728.027100	183.789841
2727.360352	187.511230
2726.693604	213.729263
2726.026855	198.699539
2725.359863	194.919891
2724.692871	202.385056
2724.025635	224.836990
2723.358398	183.588058
2722.691162	202.289780
2722.023682	232.222183
2721.355957	228.440796
2720.688477	235.893631
2720.020508	250.831619
2719.352783	232.076401
2718.684814	224.554810
2718.016602	220.777557
2717.348389	202.035873
2716.680176	216.967407
2716.011719	243.114960
2715.343262	231.857849
2714.674561	186.952774
2714.005859	201.877289
2713.337158	205.583450
2712.668213	213.025757
2711.999023	190.572052
2711.329834	183.069870
2710.660645	205.454315
2709.991455	209.156982
2709.321777	186.717957
2708.652344	194.156174
2707.982666	190.392471
2707.312988	205.292953
2706.643066	175.404587
2705.972900	186.571304
2705.302979	175.349457
2704.632813	182.782410
2703.962402	186.483353
2703.291992	167.808624
2702.621582	186.424728
2701.950928	193.851227
2701.280273	141.638245
2700.609375	167.703125
2699.938477	156.498306
2699.267334	160.199265
2698.596191	178.798965
2697.925049	171.322067
2697.253662	175.018936
2696.582031	148.928848
2695.910645	171.241241
2695.239014	141.437912
2694.567139	163.744446
2693.895264	130.230774
2693.223145	178.574112
2692.551270	171.106598
2691.878906	182.237045
2691.206543	130.148849
2690.534180	141.282227
2689.861816	152.412094
2689.189209	104.069931
2688.516357	156.080322
2687.843506	144.908920
2687.170654	148.601151
2686.497559	141.148865
2685.824463	155.982086
2685.151123	152.244263
2684.477783	148.507599
2683.804199	137.347900
2683.130615	159.595413
2682.457031	144.726532
2681.783203	140.993393
2681.109375	115.002815
2680.435303	170.622467
2679.761230	137.218185
2679.086914	159.444672
2678.412598	155.712128
2677.738281	163.101303
2677.063721	137.131760
2676.389160	133.404480
2675.714355	125.973274
2675.039551	148.180496
2674.364502	137.045364
2673.689453	99.990326
2673.014404	133.299423
2672.339111	136.980591
2671.663574	140.660614
2670.988037	155.442490
2670.312500	125.814560
2669.636719	114.695198
2668.960938	122.075645
2668.285156	136.851120
2667.609131	151.621918
2666.932861	122.017921
2666.256592	144.180267
2665.580322	140.461182
2664.903809	114.568687
2664.227295	144.112076
2663.550781	144.089355
2662.874023	158.842697
2662.197021	140.350479
2661.520020	144.021194
2660.843018	151.383011
2660.165771	177.200943
2659.488525	125.497536
2658.811035	136.549301
2658.133545	136.527756
2657.455811	143.884933
2656.778076	147.551010
2656.100342	136.463150
2655.422363	154.879669
2654.744385	129.046036
2654.066162	132.712112
2653.387939	158.492233
2652.709473	140.040802
2652.031006	151.072800
2651.352539	147.364838
2650.673828	128.923874
2649.994873	132.586487
2649.316162	147.295059
2648.636963	136.226425
2647.958008	128.842484
2647.278809	139.864044
2646.599365	169.282364
2645.919922	187.652985
2645.240479	176.586685
2644.560791	143.454025
2643.880859	147.109100
2643.201172	136.054413
2642.520996	143.386063
2641.841064	136.011444
2641.160889	124.963745
2640.480469	143.318115
2639.800049	135.946991
2639.119629	135.925507
2638.438965	135.904037
2637.758301	124.865059
2637.077393	168.908386
2636.396484	179.895721
2635.715332	146.830444
2635.034180	143.137054
2634.353027	143.114426
2633.671631	128.415726
2632.989990	154.074509
2632.308350	154.050156
2631.626709	161.360367
2630.944824	161.334854
2630.262939	157.643219
2629.581055	150.287216
2628.898926	161.258331
2628.216553	106.267097
2627.534180	128.233109
2626.851807	135.539276
2626.169189	120.867264
2625.486572	157.468796
2624.803711	161.105377
2624.120850	157.418991
2623.437988	153.733765
2622.754883	150.049683
2622.071533	142.707611
2621.388184	139.026443
2620.704834	157.294510
2620.021240	146.297318
2619.337646	142.617310
2618.653809	117.000816
2617.969971	153.539261
2617.286133	149.859848
2616.602051	142.527054
2615.917725	153.466370
2615.233398	142.481934
2614.549072	168.029007
2613.864502	200.872437
2613.179932	153.369217
2612.495117	142.391724
2611.810303	138.718689
2611.125488	149.646469
2610.440430	131.376083
2609.755127	156.896591
2609.069824	175.112640
2608.384521	171.437302
2607.698975	164.116104
2607.013428	138.564972
2606.327637	171.355850
2605.641846	134.875793
2604.956055	153.077988
2604.270020	156.697876
2603.583740	131.168137
2602.897461	171.220154
2602.211182	149.338593
2601.524658	156.598587
2600.838135	123.802513
2600.151367	167.470978
2599.464600	138.323654
2598.777832	149.220291
2598.090820	138.279816
2597.403564	171.003189
2596.716309	170.976074
2596.029053	127.302422
2595.341553	145.465424
2594.654053	152.714478
2593.966309	199.951523
2593.278564	134.491516
2592.590820	145.373169
2591.902832	174.420151
2591.214600	145.327072
2590.526367	170.732224
2589.838135	152.545029
2589.149658	192.466751
2588.461182	174.281860
2587.772461	206.926880
2587.083740	137.929367
2586.394775	156.053207
2585.705811	177.799850
2585.016846	145.119705
2584.327637	192.253098
2583.638184	152.327347
2582.948975	174.060760
2582.259277	163.156067
2581.569824	170.380402
2580.879883	155.855194
2580.190186	163.078384
2579.500244	144.935547
2578.810059	148.535355
2578.119873	141.267303
2577.429688	148.488205
2576.739258	170.191147
2576.048584	155.682068
2575.358154	173.757050
2574.667236	144.774536
2573.976563	126.657608
2573.285645	155.583206
2572.594482	155.558487
2571.903320	148.299652
2571.212158	133.810135
2570.520752	159.100281
2569.829102	162.690353
2569.137451	148.205444
2568.445801	155.410278
2567.753906	155.385590
2567.062012	177.039154
2566.370117	166.173615
2565.677979	169.759109
2564.985596	130.007584
2564.293213	151.651413
2563.600830	129.966263
2562.908203	155.212799
2562.215332	173.233261
2561.522705	133.512741
2560.829590	169.570313
2560.136719	111.826462
2559.443604	144.269272
2558.750244	147.852493
2558.056885	198.307159
2557.363525	169.435532
2556.669922	173.013031
2555.976074	165.777786
2555.282227	151.338257
2554.588379	140.506027
2553.894287	158.494400
2553.200195	158.469193
2552.505859	126.034981
2551.811523	154.818344
2551.117188	169.193130
2550.422607	161.967651
2549.727783	140.349625
2549.032959	147.523560
2548.338135	176.280594
2547.643066	165.461563
2546.947998	165.435226
2546.252686	143.833817
2545.557373	143.810928
2544.861816	143.788040
2544.166260	115.012115
2543.470703	150.929367
2542.774902	172.463257
2542.078857	165.250961
2541.382813	168.816498
2540.686768	165.198349
2539.990479	157.990646
2539.294189	129.244492
2538.597656	157.940323
2537.901123	157.915176
2537.204346	154.301605
2536.507568	147.101364
2535.810791	161.426987
2535.113770	175.748047
2534.416504	132.686569
2533.719238	129.079880
2533.021973	157.739166
2532.324463	132.623154
2531.626953	114.682831
2530.929199	157.663773
2530.231445	171.969421
2529.533447	146.867142
2528.835449	154.006836
2528.137451	157.563278
2527.439209	125.314445
2526.740723	164.672729
2526.042236	157.487946
2525.343750	189.671143
2524.645020	164.593979
2523.946289	193.188217
2523.247314	153.810532
2522.548340	185.973770
2521.849121	153.761475
2521.149902	160.887512
2520.450684	160.861862
2519.751221	150.113785
2519.051514	160.810547
2518.351807	114.335922
2517.652100	117.890114
2516.952148	171.449173
2516.252197	185.706970
2515.552002	124.975128
2514.851807	167.796967
2514.151367	160.631042
2513.450928	157.036392
2512.750244	167.716644
2512.049561	153.418411
2511.348877	171.230423
2510.647949	164.069626
2509.946777	181.874252
2509.245605	139.058105
2508.544434	149.730972
2507.843018	167.529343
2507.141602	149.683167
2506.439941	153.222580
2505.738281	171.011856
2505.036377	142.487122
2504.334473	188.765289
2503.632568	188.735138
2502.930420	160.221222
2502.228027	156.635727
2501.525635	167.288712
2500.823242	170.820755
2500.120605	160.118881
2499.417969	160.093292
2498.715088	195.638321
2498.012207	170.711624
2497.309082	160.016571
2496.605957	152.880295
2495.902588	188.403732
2495.199219	159.939865
2494.495605	149.253357
2493.791992	152.782593
2493.088379	184.730804
2492.384521	159.837646
2491.680664	166.914856
2490.976563	166.888168
2490.272461	170.411728
2489.568115	173.934158
2488.863770	181.004578
2488.159180	163.232925
2487.454590	124.179100
2486.749756	166.728119
2486.044922	156.060944
2485.339844	187.952438
2484.634766	187.922363
2483.929688	155.986069
2483.224365	187.862259
2482.519043	148.848160
2481.813477	166.541534
2481.107666	173.600632
2480.402100	141.692123
2479.696045	187.712021
2478.990234	184.140823
2478.284180	173.489548
2477.577881	152.221558
2476.871582	187.591904
2476.165039	194.639679
2475.458496	155.686813
2474.751953	180.426285
2474.045166	180.397415
2473.338379	180.368530
2472.631348	162.659302
2471.924072	176.775269
2471.217041	155.537338
2470.509521	162.581177
2469.802246	159.021332
2469.094482	166.062347
2468.386963	158.970398
2467.679199	204.862366
2466.971191	162.451035
2466.263184	180.079895
2465.554932	158.868576
2464.846680	180.022217
2464.138428	187.051941
2463.429932	179.964539
2462.721436	197.576447
2462.012695	190.489624
2461.303955	151.661880
2460.594971	208.060852
2459.885986	193.923950
2459.176758	172.740921
2458.467529	179.762756
2457.758057	186.782333
2457.048584	190.276016
2456.338867	190.245514
2455.629150	193.737518
2454.919434	186.662582
2454.209473	193.675400
2453.499512	193.644348
2452.789307	197.133545
2452.078857	179.503540
2451.368408	179.474762
2450.657959	172.408875
2449.947266	172.381226
2449.236572	168.836151
2448.525879	214.528198
2447.814697	147.684250
2447.103760	203.912186
2446.392578	165.212677
2445.681152	161.671570
2444.969727	161.645630
2444.258301	214.321777
2443.546631	186.184113
2442.834717	224.790024
2442.122803	172.077240
2441.410889	168.538406
2440.698730	200.107239
2439.986572	182.524673
2439.274170	207.062057
2438.561768	203.519852
2437.849121	178.928375
2437.136475	192.931000
2436.423584	199.914566
2435.710693	175.335495
2434.997803	199.850372
2434.284424	192.807114
2433.571289	171.746033
2432.857910	175.222900
2432.144287	189.210342
2431.430908	203.193283
2430.717041	189.149567
2430.003174	192.621384
2429.289307	203.095367
2428.575195	189.058411
2427.861084	192.528564
2427.146729	209.997406
2426.432373	206.464264
2425.717773	209.929932
2425.003174	216.892731
2424.288330	174.885376
2423.573486	199.337296
2422.858643	206.298416
2422.143555	209.761276
2421.428223	178.268433
2420.712891	167.755081
2419.997559	192.188461
2419.281982	164.207367
2418.566162	213.085938
2417.850586	185.110458
2417.134521	167.620255
2416.418457	164.101776
2415.702393	212.948898
2414.986084	195.462631
2414.269775	198.921036
2413.553223	184.931915
2412.836670	181.413452
2412.120117	184.872421
2411.403076	184.842682
2410.686279	198.761093
2409.969238	181.296738
2409.251953	223.098541
2408.534668	230.033340
2407.817383	177.724426
2407.099854	216.022385
2406.382080	205.536606
2405.664307	219.435959
2404.946533	181.092590
2404.228516	184.545441
2403.510498	201.922867
2402.792236	187.966888
2402.073975	170.535095
2401.355469	160.068390
2400.636963	212.230423
2399.918213	194.803116
2399.199463	170.425278
2398.480469	184.307861
2397.761475	170.370392
2397.042480	201.630432
2396.323242	184.218826
2395.603760	218.941818
2394.884277	184.159470
2394.164795	191.078110
2393.445068	218.836014
2392.725098	211.854706
2392.005127	197.930695
2391.285156	201.370712
2390.564941	197.866913
2389.844727	204.776611
2389.124268	176.981766
2388.403809	187.362259
2387.683105	218.554062
2386.962402	211.581726
2386.241455	232.355591
2385.520508	187.241470
2384.799316	235.747543
2384.078125	232.243225
2383.356689	190.616684
2382.635254	194.051147
2381.913818	228.666260
2381.192139	200.916733
2380.470215	190.493759
2379.748291	193.925995
2379.026367	186.969910
2378.304199	180.016052
2377.581787	186.909592
2376.859375	162.654327
2376.136963	221.451019
2375.414307	224.874908
2374.691650	266.347290
2373.968750	217.885345
2373.245850	186.728729
2372.522705	200.528122
2371.799316	210.866241
2371.076172	207.375946
2370.352783	238.443832
2369.629150	183.122955
2368.905518	238.366867
2368.181641	162.339630
2367.457764	193.394714
2366.733643	189.910568
2366.009521	217.498810
2365.285400	193.301056
2364.561035	176.013611
2363.836426	186.337250
2363.111816	217.358353
2362.387207	196.625793
2361.662354	220.737167
2360.937256	217.253052
2360.212158	175.843109
2359.487061	179.262054
2358.761719	244.722107
2358.036377	217.112701
2357.310791	206.740601
2356.584961	227.377914
2355.859375	203.229218
2355.133301	216.972412
2354.407471	185.946289
2353.681152	251.331223
2352.955078	199.655548
2352.228516	227.157516
2351.502197	223.679581
2350.775635	192.677399
2350.048828	216.727036
2349.322021	233.889786
2348.594971	192.583969
2347.867920	192.552826
2347.140869	195.959579
2346.413330	206.239883
2345.686035	189.022659
2344.958496	243.971603
2344.230713	230.189499
2343.502930	233.587372
2342.775146	226.680481
2342.047119	236.945801
2341.319092	188.839294
2340.590820	202.540283
2339.862305	233.398483
2339.133789	199.042969
2338.405273	209.304428
2337.676514	195.547897
2336.947754	205.806580
2336.218750	243.498367
2335.489746	229.742966
2334.760498	236.562668
2334.031250	202.245483
2333.301758	188.503403
2332.572266	236.447800
2331.842529	212.425949
2331.112793	188.411865
2330.382813	188.381363
2329.652832	191.775421
2328.922607	219.136414
2328.192383	225.947830
2327.462158	249.871521
2326.731689	205.340591
2326.000977	188.198395
2325.270264	205.274078
2324.539307	218.923553
2323.808350	208.627701
2323.077393	249.628769
2322.346191	242.750290
2321.614746	201.689392
2320.883301	235.835815
2320.151855	228.962891
2319.420166	222.092178
2318.688232	245.969925
2317.956299	208.357407
2317.224365	194.663071
2316.492188	211.704468
2315.760010	232.154358
2315.027588	215.049316
2314.295166	232.079086
2313.562500	218.391968
2312.829590	211.532913
2312.096924	221.732422
2311.363770	211.464310
2310.630615	231.890991
2309.897461	262.539856
2309.164063	265.906342
2308.430664	218.144180
2307.697021	211.292892
2306.963379	228.295593
2306.229492	235.072250
2305.495605	238.440414
2304.761719	221.373032
2304.027344	217.931931
2303.293213	211.087296
2302.558838	234.881607
2301.824219	234.843491
2301.089600	245.014313
2300.354736	197.340607
2299.619873	210.916061
2298.885010	210.881836
2298.149658	210.847595
2297.414551	224.414230
2296.679199	248.175446
2295.943604	237.937820
2295.208008	220.906387
2294.472412	241.258560
2293.736572	227.629562
2293.000488	241.180222
2292.264404	220.762939
2291.528320	237.706085
2290.791992	210.505478
2290.055420	261.391754
2289.318848	200.254654
2288.582275	227.370895
2287.845459	237.513077
2287.108398	247.651978
2286.371582	227.260086
2285.634277	220.440384
2284.896973	240.749588
2284.159668	210.197876
2283.422119	227.112396
2282.684570	227.075485
2281.946777	237.204483
2281.208740	230.389771
2280.470703	220.189713
2279.732666	240.475815
2278.994385	281.073914
2278.256104	253.941162
2277.517578	267.441193
2276.779053	230.165115
2276.040283	247.048843
2275.301514	226.706589
2274.562500	253.734756
2273.823486	233.398010
2273.084229	317.910797
2272.344971	277.281342
2271.605469	256.950653
2270.865967	253.528473
2270.126221	246.727554
2269.386475	206.136063
2268.646484	260.162201
2267.906494	229.716248
2267.166260	246.567017
2266.426025	243.149811
2265.685547	263.369415
2264.945068	273.454498
2264.204346	229.529388
2263.463623	239.616669
2262.722656	256.449341
2261.981689	226.043533
2261.240723	310.337585
2260.499268	246.206039
2259.758057	263.026642
2259.016602	269.726990
2258.274902	252.827881
2257.533203	225.822784
2256.791260	219.046127
2256.049316	245.965591
2255.307129	279.613953
2254.564941	266.095215
2253.822754	252.580902
2253.080322	299.680511
2252.337646	249.131958
2251.594971	245.725281
2250.852051	289.437408
2250.109131	275.930237
2249.366211	238.876266
2248.623047	255.656876
2247.879639	221.981628
2247.136230	275.750397
2246.392578	268.980927
2245.648926	275.660522
2244.905273	292.421417
2244.161377	275.570648
2243.417236	252.005234
2242.673096	238.526062
2241.928955	285.512817
2241.184570	295.541534
2240.439941	245.125153
2239.695313	248.442505
2238.950439	261.829132
2238.205566	268.498901
2237.460693	224.831146
2236.715576	268.411316
2235.970215	285.140503
2235.224854	268.323761
2234.479492	258.219482
2233.733887	274.942108
2232.988037	254.782806
2232.242188	251.389374
2231.496338	268.104919
2230.750244	268.061157
2230.003906	268.017426
2229.257568	294.771027
2228.511230	257.882568
2227.764648	284.629089
2227.017822	267.842468
2226.270996	251.061325
2225.523926	281.142761
2224.776855	230.901001
2224.029785	264.321747
2223.282471	314.458069
2222.534912	260.890686
2221.787354	277.569092
2221.039795	237.399841
2220.291992	267.449097
2219.543945	250.692581
2218.795898	274.045776
2218.047852	243.927734
2217.299561	260.592529
2216.551025	283.932648
2215.802490	257.167542
2215.053955	287.179169
2214.305176	293.809723
2213.556152	260.379700
2212.807129	290.376038
2212.058105	293.665710
2211.308838	253.578918
2210.559326	273.553589
2209.809814	286.850769
2209.060303	306.813446
2208.310547	280.088226
2207.560547	253.371719
2206.810547	293.329803
2206.060303	299.947357
2205.310059	253.247452
2204.559814	269.864319
2203.809326	246.502411
2203.058594	263.114929
2202.307861	306.362213
2201.557129	269.687836
2200.806152	289.617310
2200.054932	306.211884
2199.303711	259.571960
2198.552246	262.856781
2197.800781	262.813782
2197.049316	302.685333
2196.297607	289.333130
2195.545654	279.310394
2194.793701	292.563019
2194.041504	282.543030
2193.289307	285.820251
2192.537109	235.929260
2191.784668	299.016327
2191.031982	279.036194
2190.279297	298.918427
2189.526367	288.907166
2188.773438	285.539612
2188.020508	298.771606
2187.267090	268.850403
2186.513916	292.036560
2185.760498	258.808197
2185.006836	308.528473
2184.253174	295.210052
2183.499268	295.161713
2182.745361	321.640411
2181.991211	318.272369
2181.237061	314.905426
2180.482666	301.596832
2179.728271	291.606293
2178.973877	331.316498
2178.218994	294.823364
2177.464355	308.023346
2176.709229	321.219025
2175.954346	268.190460
2175.198975	324.424164
2174.443848	281.342194
2173.688232	314.389740
2172.932861	294.485260
2172.177002	294.436981
2171.421387	248.080353
2170.665283	314.183594
2169.909424	281.065552
2169.153076	327.304993
2168.396729	307.417908
2167.640381	320.587616
2166.883789	270.967743
2166.127197	313.874542
2165.370361	294.002655
2164.613525	284.045868
2163.856445	300.510834
2163.099365	313.668640
2162.342041	300.412231
2161.584473	283.859497
2160.826904	260.711853
2160.069336	293.665161
2159.311523	270.523499
2158.553711	277.076141
2157.795654	293.520599
2157.037354	316.554504
2156.279053	306.611847
2155.520752	257.116089
2154.762207	299.919525
2154.003662	286.689178
2153.244873	303.115784
2152.485840	303.066010
2151.726807	319.484528
2150.967773	266.742218
2150.208252	293.039001
2149.448975	306.158997
2148.689453	279.776794
2147.929688	315.931305
2147.169922	332.331451
2146.410156	236.870621
2145.650146	266.435669
2144.889893	292.702209
2144.129639	309.095337
2143.369141	335.346222
2142.608643	272.834930
2141.847900	335.236023
2141.087158	312.178314
2140.326416	328.554718
2139.565186	289.080627
2138.804199	302.170990
2138.042725	285.701691
2137.281494	265.954376
2136.519775	246.213577
2135.758301	311.819244
2134.996338	272.386749
2134.234619	288.748108
2133.472412	311.665436
2132.710449	308.334045
2131.947998	298.444489
2131.185547	278.720978
2130.423096	259.003937
2129.660400	304.853241
2128.897705	294.970734
2128.134766	294.922180
2127.371826	314.531921
2126.608643	340.686829
2125.845215	314.428406
2125.081787	317.651428
2124.318359	317.599152
2123.554688	314.273193
2122.790771	274.943787
2122.026855	350.168365
2121.262939	323.934235
2120.498779	300.980225
2119.734375	310.743622
2118.969971	284.528900
2118.205322	281.212128
2117.440674	304.051422
2116.676025	382.453339
2115.911133	317.024475
2115.145996	310.436768
2114.380859	284.247894
2113.615479	303.801147
2112.850098	310.283386
2112.084473	293.904266
2111.318848	290.590759
2110.552979	336.246277
2109.787109	300.286987
2109.020996	303.500977
2108.254883	329.554260
2107.488525	309.925720
2106.722168	335.969330
2105.955566	335.913971
2105.188965	322.815552
2104.422119	316.241882
2103.655029	303.151001
2102.887939	329.174255
2102.120850	348.671661
2101.353516	319.291473
2100.585938	302.951141
2099.818359	325.700195
2099.050781	328.902954
2098.282959	325.592804
2097.514893	332.049896
2096.746826	302.701416
2095.978760	318.923096
2095.210449	331.885620
2094.441895	344.843842
2093.673340	305.754456
2092.904541	347.982239
2092.135742	308.905212
2091.366699	357.620697
2090.597656	334.807770
2089.828369	328.252472
2089.059082	308.701385
2088.289551	321.646240
2087.520020	295.605835
2086.750244	334.531586
2085.980469	318.239655
2085.210449	344.161560
2084.440186	301.903229
2083.670166	311.590576
2082.899658	301.803558
2082.129150	330.955688
2081.358643	337.389282
2080.587891	321.115601
2079.816895	327.548706
2079.045898	311.281982
2078.274902	333.924469
2077.503662	327.386414
2076.732178	369.464233
2075.960693	307.835999
2075.188965	320.744507
2074.417236	298.016357
2073.645264	294.728333
2072.873291	343.253204
2072.101074	346.434204
2071.328857	323.716766
2070.556396	349.556335
2069.783936	368.915131
2069.011230	294.436218
2068.238525	297.622589
2067.465576	300.807861
2066.692627	336.331696
2065.919434	333.042664
2065.145996	320.056030
2064.372559	349.094299
2063.599121	358.732056
2062.825439	316.666016
2062.051514	352.151886
2061.277588	339.172791
2060.503662	335.886993
2059.729248	319.685699
2058.955078	348.690338
2058.180664	345.404602
2057.406006	342.119904
2056.631348	313.020172
2055.856445	335.553741
2055.081543	329.046326
2054.306396	306.414001
2053.531250	293.463776
2052.755859	338.556030
2051.980225	338.500000
2051.204590	322.327576
2050.428955	306.160522
2049.653076	338.331909
2048.877197	328.610901
2048.101074	280.239349
2047.324707	347.825745
2046.548340	334.887848
2045.771851	357.369171
2044.995239	286.491791
2044.218506	347.595398
2043.441528	389.371094
2042.664551	302.436523
2041.887329	344.205841
2041.110107	357.014191
2040.332642	315.149506
2039.555176	369.757019
2038.777466	308.615601
2037.999634	311.778656
2037.221802	350.291168
2036.443726	353.446259
2035.665527	334.112000
2034.887207	385.449951
2034.108765	305.097321
2033.330200	324.312836
2032.551514	349.942993
2031.772705	359.514832
2030.993774	346.617554
2030.214600	343.351196
2029.435425	381.794556
2028.656128	346.445160
2027.876587	356.009583
2027.097046	339.916748
2026.317261	278.942017
2025.537476	352.626801
2024.757446	330.132141
2023.977295	355.714447
2023.197021	317.206207
2022.416626	336.375031
2021.636230	345.928345
2020.855591	333.060913
2020.074707	345.813568
2019.293823	377.770630
2018.512817	348.899719
2017.731689	339.240662
2016.950439	364.783173
2016.168945	329.530090
2015.387451	358.264496
2014.605713	348.610260
2013.823975	374.134216
2013.041992	393.255280
2012.260010	342.043335
2011.477783	338.790405
2010.695435	338.734161
2009.912964	351.458191
2009.130371	364.178009
2008.347656	328.983368
2007.564819	367.250519
2006.781860	348.031830
2005.998779	363.936127
2005.215576	341.532410
2004.432129	354.241119
2003.648682	344.609772
2002.864990	405.168243
2002.081299	341.305511
2001.297363	344.438019
2000.513428	347.569489
1999.729248	398.522644
1998.944946	404.831696
1998.160522	376.080322
1997.375977	366.458038
1996.591309	379.141357
1995.806519	407.748138
1995.021606	363.090302
1994.236572	363.029938
1993.451416	369.337463
1992.666016	343.808716
1991.880615	378.763275
1991.094971	369.153229
1990.309326	375.455475
1989.523438	375.393036
1988.737549	381.692139
1987.951416	391.169373
1987.165161	346.588348
1986.378784	340.172333
1985.592285	359.187653
1984.805664	416.334106
1984.018921	368.600922
1983.232056	330.414795
1982.444946	362.125153
1981.657837	371.592926
1980.870605	365.180115
1980.083130	380.994080
1979.295654	415.849304
1978.507935	349.128326
1977.720093	349.070190
1976.932129	377.567627
1976.144165	355.298584
1975.355957	329.865173
1974.567627	380.550293
1973.779053	361.462585
1972.990479	386.763947
1972.201782	361.342194
1971.412964	339.098022
1970.623901	405.582397
1969.834839	354.825470
1969.045532	389.609497
1968.256226	380.043488
1967.466675	405.312195
1966.677002	383.082825
1965.887207	408.342560
1965.097290	386.120087
1964.307251	386.055756
1963.517090	370.172089
1962.726807	363.783722
1961.936401	408.002411
1961.145874	369.987000
1960.355103	388.895874
1959.564331	404.637177
1958.773315	404.569702
1957.982178	369.740326
1957.191040	385.476929
1956.399658	360.139679
1955.608154	382.189758
1954.816528	375.809906
1954.024780	401.007538
1953.232910	407.254669
1952.440918	397.717285
1951.648682	359.779419
1950.856445	403.895447
1950.063965	365.969208
1949.271484	356.444977
1948.478760	419.462585
1947.685913	368.939362
1946.893066	359.419373
1946.099976	400.338989
1945.306763	434.941406
1944.513428	346.634552
1943.719971	403.289246
1942.926270	428.423309
1942.132568	381.107086
1941.338745	415.683777
1940.544678	396.722809
1939.750610	431.285309
1938.956299	443.803467
1938.161865	396.524109
1937.367310	440.508759
1936.572632	415.267456
1935.777832	415.198090
1934.982910	374.244873
1934.187866	415.059418
1933.392700	399.270752
1932.597290	374.057343
1931.801880	380.280457
1931.006226	411.639801
1930.210571	446.130432
1929.414673	364.383667
1928.618652	383.167053
1927.822510	417.645081
1927.026245	414.435608
1926.229858	404.948944
1925.433350	464.514923
1924.636719	426.780182
1923.839844	379.645355
1923.042969	417.226379
1922.245850	388.927948
1921.448730	410.814880
1920.651367	410.746185
1919.853882	401.272644
1919.056274	385.533447
1918.258545	407.406219
1917.460693	413.604828
1916.662720	426.067017
1915.864624	375.878601
1915.066284	441.583466
1914.267944	375.752838
1913.469360	366.297729
1912.670776	463.273438
1911.871948	422.509766
1911.072998	403.664001
1910.273926	444.268951
1909.474731	456.707123
1908.675415	428.482208
1907.875977	415.902161
1907.076294	387.693481
1906.276611	397.006683
1905.476807	456.324982
1904.676758	465.623535
1903.876587	434.300903
1903.076294	415.484528
1902.275879	396.674408
1901.475342	402.853790
1900.674683	462.111420
1899.873901	427.693665
1899.072998	427.622009
1898.271851	418.187958
1897.470703	486.764130
1896.669312	452.365204
1895.867920	464.766388
1895.066284	436.620056
1894.264526	449.019684
1893.462646	433.356079
1892.660645	470.689209
1891.858521	423.860962
1891.056152	417.557709
1890.253784	439.296783
1889.451172	473.488770
1888.648560	429.805908
1887.845703	442.189880
1887.042725	432.775269
1886.239624	438.928650
1885.436401	485.541748
1884.633057	460.564941
1883.829590	413.816650
1883.025879	463.521332
1882.222168	457.222870
1881.418213	444.706818
1880.614258	422.867004
1879.810059	413.469696
1879.005737	410.292053
1878.201294	450.623993
1877.396729	431.904999
1876.592041	459.792908
1875.787231	444.184814
1874.982178	419.264923
1874.177124	422.299713
1873.371826	416.019592
1872.566406	409.741547
1871.760986	443.812164
1870.955322	434.428467
1870.149536	456.073334
1869.343506	459.098755
1868.537476	449.717194
1867.731323	455.843628
1866.924927	477.470276
1866.118530	440.190857
1865.311890	461.812836
1864.505127	430.746307
1863.698242	495.739807
1862.891235	455.384460
1862.084106	442.918610
1861.276855	439.747406
1860.469482	439.673523
1859.661865	436.503876
1858.854126	495.240295
1858.046387	516.820190
1857.238403	504.356506
1856.430298	433.116821
1855.622070	454.696228
1854.813721	488.638977
1854.005249	482.372559
1853.196533	466.833435
1852.387817	454.390564
1851.578857	469.767029
1850.769775	441.877563
1849.960693	438.713745
1849.151367	441.728973
1848.341919	438.566193
1847.532227	432.316498
1846.722534	450.768494
1845.912720	450.692688
1845.102661	447.530457
1844.292603	441.283386
1843.482300	465.892151
1842.671875	459.644073
1841.861328	462.651062
1841.050659	431.735016
1840.239868	499.494995
1839.428833	477.831451
1838.617798	542.478577
1837.806519	443.771423
1836.995117	465.265320
1836.183716	477.509827
1835.372070	465.108704
1834.560303	514.305115
1833.748291	452.635468
1832.936279	495.660156
1832.124146	495.576691
1831.311768	449.329285
1830.499390	470.793152
1829.686768	436.871704
1828.874023	455.254364
1828.061157	467.479797
1827.248169	461.251038
1826.434937	504.216187
1825.621704	491.835358
1824.808228	461.017944
1823.994751	485.523743
1823.181030	454.717773
1822.367188	454.641144
1821.553223	472.992828
1820.739136	485.196564
1819.924927	485.114777
1819.110474	503.451996
1818.296021	509.505737
1817.481323	500.213470
1816.666626	487.856018
1815.851685	484.706024
1815.036621	506.095001
1814.221436	481.475861
1813.406006	475.262238
1812.590576	499.707611
1811.774902	472.036774
1810.959229	490.345093
1810.143311	474.941711
1809.327271	499.370575
1808.511108	487.033905
1807.694824	434.887726
1806.878418	483.807495
1806.061768	462.294983
1805.245117	511.193604
1804.428223	456.017944
1803.611206	498.781067
1802.794067	507.875366
1801.976807	492.494781
1801.159424	516.879272
1800.341919	421.995880
1799.524170	498.360260
1798.706421	479.934662
1797.888428	516.530334
1797.070313	455.325592
1796.252075	501.079132
1795.433716	491.829987
1794.615234	461.203644
1793.796509	503.879120
1792.977783	491.580841
1792.158813	464.022766
1791.339844	466.996643
1790.520630	518.797485
1789.701294	512.607361
1788.881714	515.571472
1788.062134	481.932159
1787.242432	439.155090
1786.422485	518.359375
1785.602417	475.590546
1784.782349	505.991608
1783.962036	472.382172
1783.141479	484.490784
1782.320923	496.595276
1781.500244	511.741730
1780.679321	475.108429
1779.858398	496.343445
1779.037231	505.393127
1778.215942	517.483765
1777.394531	529.570313
1776.572998	511.222778
1775.751221	495.923920
1774.929443	514.091797
1774.107422	462.300232
1773.285278	483.508575
1772.463013	519.911804
1771.640625	522.863770
1770.818115	544.051025
1769.995483	534.842346
1769.172607	495.253143
1768.349731	492.131470
1767.526611	510.272186
1766.703369	525.369934
1765.880005	507.063171
1765.056519	482.691010
1764.232910	482.609314
1763.409058	521.979553
1762.585083	524.925415
1761.761108	500.566650
1760.936890	479.249329
1760.112549	524.658813
1759.288086	521.537781
1758.463379	548.734619
1757.638672	515.298828
1756.813721	497.027588
1755.988647	521.184570
1755.163574	496.859222
1754.338257	521.007996
1753.512695	505.776703
1752.687134	493.578644
1751.861328	505.605316
1751.035522	523.682007
1750.209473	484.248108
1749.383301	517.452454
1748.557007	493.160553
1747.730591	523.327087
1746.903931	471.821899
1746.077271	538.269653
1745.250366	538.178406
1744.423340	486.696777
1743.596313	562.175476
1742.768921	528.838867
1741.941528	528.749207
1741.114014	570.952271
1740.286255	555.753479
1739.458374	504.321136
1738.630493	570.661804
1737.802368	501.131195
1736.973999	558.394836
1736.145630	543.210938
1735.317139	531.049438
1734.488403	546.043396
1733.659546	500.706238
1732.830566	536.810730
1732.001465	476.414063
1731.172241	536.628540
1730.342896	530.508972
1729.513306	515.350220
1728.683594	524.302429
1727.853882	542.289734
1727.023926	524.124451
1726.193726	515.000366
1725.363525	520.935303
1724.533203	566.006958
1723.702637	508.717712
1722.871948	538.727844
1722.041138	520.581482
1721.210205	508.458557
1720.379150	505.364075
1719.547974	574.453247
1718.716553	532.256287
1717.885010	520.139526
1717.053467	571.154419
1716.221558	550.018433
1715.389648	546.919922
1714.557617	540.817871
1713.725342	513.689697
1712.893066	540.634094
1712.060547	561.563293
1711.227905	543.452820
1710.395142	582.386353
1709.562256	561.276978
1708.729126	561.181519
1707.895874	525.080566
1707.062622	542.991028
1706.229126	614.885254
1705.395508	551.803162
1704.561646	512.729858
1703.727783	566.605042
1702.893677	551.521667
1702.059570	545.434082
1701.225220	548.337646
1700.390747	593.182434
1699.556030	548.151123
1698.721313	548.057861
1697.886353	532.992859
1697.051392	556.852844
1696.216187	511.858215
1695.380859	535.713623
1694.545410	562.553162
1693.709717	553.482056
1692.874023	526.466248
1692.038086	526.376648
1691.202026	523.296753
1690.365845	562.074524
1689.529541	553.011108
1688.692993	573.838074
1687.856445	591.669800
1687.019653	564.679504
1686.182739	576.532166
1685.345703	528.646729
1684.508545	561.404846
1683.671143	555.337830
1682.833740	543.302490
1681.996094	576.041321
1681.158325	525.212463
1680.320435	602.697937
1679.482422	566.797485
1678.644287	557.752991
1677.805908	560.640076
1676.967407	506.875366
1676.128784	539.581238
1675.290039	560.353455
1674.451172	598.999207
1673.612183	530.366577
1672.772949	557.087830
1671.933594	548.057129
1671.094116	527.117249
1670.254517	532.982483
1669.414795	523.960449
1668.574829	565.542664
1667.734863	529.733826
1666.894653	526.667969
1666.054321	535.503174
1665.213867	609.774536
1664.373169	556.138489
1663.532471	603.619507
1662.691528	558.921753
1661.850464	567.743774
1661.009277	549.815063
1660.167969	534.863953
1659.326538	528.830750
1658.484863	567.356323
1657.643066	501.920715
1656.801147	567.162659
1655.959106	584.879456
1655.116943	596.653320
1654.274658	522.353516
1653.432129	516.329468
1652.589478	614.149170
1651.746704	551.749939
1650.903809	530.894470
1650.060791	566.388428
1649.217529	536.642883
1648.374146	530.622498
1647.530640	554.242798
1646.687012	571.928223
1645.843262	574.793396
1644.999390	553.958740
1644.155273	589.406189
1643.311035	574.498779
1642.466675	559.596497
1641.622192	603.905701
1640.777588	586.043579
1639.932739	503.082733
1639.087769	505.955536
1638.242798	573.909912
1637.397461	559.022827
1636.552124	553.012695
1635.706665	552.918152
1634.860962	573.517517
1634.015137	588.198303
1633.169189	596.963501
1632.323120	570.268616
1631.476929	587.896606
1630.630493	567.119812
1629.783936	569.976013
1628.937256	561.020325
1628.090454	584.542175
1627.243530	611.007751
1626.396484	563.683655
1625.549194	607.847961
1624.701782	610.694153
1623.854248	586.991943
1623.006592	616.383545
1622.158691	507.176208
1621.310791	583.742432
1620.462646	589.537903
1619.614380	562.912292
1618.765991	559.869263
1617.917358	609.858398
1617.068726	627.427979
1616.219849	606.704407
1615.370850	580.098511
1614.521729	594.719971
1613.672363	576.956177
1612.822998	603.345703
1611.973389	544.389465
1611.123657	606.081177
1610.273804	597.152466
1609.423828	588.226746
1608.573608	588.125977
1607.723389	632.127075
1606.872925	576.165955
1606.022339	590.762756
1605.171509	558.336792
1604.320679	661.074951
1603.469604	602.209534
1602.618408	543.364197
1601.767090	604.939636
1600.915649	598.963745
1600.064087	572.440735
1599.212280	592.888184
1598.360352	578.113586
1597.508301	601.487122
1596.656128	616.051880
1595.803833	601.280884
1594.951294	598.245178
1594.098633	595.210449
1593.245850	580.450500
1592.392944	630.179077
1591.539795	624.209839
1590.686646	609.452454
1589.833252	603.488770
1588.979736	673.682495
1588.126099	606.210205
1587.272217	538.761047
1586.418335	570.871582
1585.564209	605.898132
1584.709961	620.426819
1583.855591	602.764099
1583.000977	564.628601
1582.146362	546.981506
1581.291504	587.830994
1580.436523	599.426208
1579.581421	596.399719
1578.726074	596.297302
1577.870605	587.427368
1577.015137	625.312744
1576.159424	633.969910
1575.303467	557.914490
1574.447510	668.798340
1573.591309	642.403259
1572.734985	604.339233
1571.878540	607.154419
1571.021973	586.620483
1570.165161	674.059937
1569.308350	627.263977
1568.451294	621.322205
1567.594116	635.797913
1566.736694	615.276611
1565.879272	594.762329
1565.021606	650.045105
1564.163818	629.531860
1563.305908	614.853638
1562.447876	594.353394
1561.589600	632.120178
1560.731201	582.499023
1559.872681	602.782837
1559.014038	640.528564
1558.155273	585.109497
1557.296265	579.187866
1556.437134	605.278198
1555.577881	637.178467
1554.718506	613.796875
1553.859009	636.959229
1552.999268	633.941589
1552.139404	659.999939
1551.279419	587.211609
1550.419312	584.204102
1549.558960	645.129272
1548.698608	621.774353
1547.838013	627.477295
1546.977173	609.942322
1546.116333	598.221375
1545.255249	598.118347
1544.394165	595.112366
1543.532837	597.912415
1542.671265	571.691528
1541.809692	589.002014
1540.947876	617.910461
1540.085938	609.102539
1539.223877	597.397705
1538.361694	629.189148
1537.499268	617.484802
1536.636841	602.885986
1535.774170	634.659973
1534.911377	602.678223
1534.048340	573.604431
1533.185303	634.331970
1532.322021	642.910583
1531.458618	587.785400
1530.594971	622.424011
1529.731323	607.844238
1528.867432	619.315430
1528.003418	610.528198
1527.139282	581.492920
1526.275024	616.102661
1525.410522	610.212402
1524.545898	633.239197
1523.681152	615.783997
1522.816284	638.801819
1521.951172	569.331482
1521.086060	627.023438
1520.220703	612.470215
1519.355225	629.695618
1518.489502	670.019165
1517.623779	646.803467
1516.757813	678.449036
1515.891724	623.488098
1515.025513	646.468689
1514.159058	585.761108
1513.292480	660.670654
1512.425781	643.249451
1511.558960	599.877991
1510.692017	648.794434
1509.824829	625.618164
1508.957520	654.335510
1508.090088	662.868652
1507.222534	648.346497
1506.354736	593.494690
1505.486938	604.914368
1504.618896	662.410889
1503.750610	642.139587
1502.882324	662.182068
1502.013794	633.282104
1501.145142	627.416565
1500.276367	633.063293
1499.407471	661.724548
1498.538330	650.103943
1497.669067	626.983032
1496.799683	652.754822
1495.930176	655.517090
1495.060547	661.152954
1494.190674	629.423767
1493.320679	666.671570
1492.450562	660.810120
1491.580200	660.695923
1490.709717	689.302612
1489.839233	669.082214
1488.968384	697.677551
1488.097534	614.309387
1487.226440	648.644409
1486.355347	645.662598
1485.483887	731.624390
1484.612427	656.913757
1483.740845	691.217590
1482.869019	679.627502
1481.997070	673.775635
1481.124878	713.791931
1480.252686	705.070007
1479.380249	704.947998
1478.507690	759.263794
1477.635010	736.215149
1476.762207	756.136841
1475.889160	790.369873
1475.015991	775.917236
1474.142700	804.409546
1473.269165	832.892029
1472.395630	827.024475
1471.521851	844.048340
1470.647949	886.812439
1469.773804	929.561707
1468.899658	906.523193
1468.025269	1015.015747
1467.150757	983.394165
1466.276001	1063.253662
1465.401245	1008.772949
1464.526245	1174.316895
1463.651123	1085.554932
1462.775879	1193.903564
1461.900391	1133.726318
1461.024780	1213.476440
1460.149048	1187.573486
1459.273193	1184.513428
1458.397217	1170.039307
1457.520996	1155.570190
1456.644653	1192.455811
1455.768188	1183.692261
1454.891479	1186.338867
1454.014648	1146.215210
1453.137695	1040.537354
1452.260620	1105.913574
1451.383423	1148.468872
1450.505981	1131.173828
1449.628418	1128.128784
1448.750732	1182.051147
1447.872803	1124.889648
1446.994873	1195.877686
1446.116699	1093.184204
1445.238403	1175.538330
1444.359863	1269.247314
1443.481201	1249.109619
1442.602417	1314.324585
1441.723511	1396.583008
1440.844482	1578.348389
1439.965210	1714.556519
1439.085815	1847.874512
1438.206299	1767.966797
1437.326538	1801.762573
1436.446777	1744.621704
1435.566772	1579.546021
1434.686646	1417.367920
1433.806274	1334.764038
1432.925781	1209.597290
1432.045166	1166.803101
1431.164429	1053.062744
1430.283569	1013.148499
1429.402466	973.248108
1428.521240	992.937744
1427.639893	890.652222
1426.758301	907.513367
1425.876709	887.507263
1424.994873	844.828125
1424.112793	873.026367
1423.230713	807.692383
1422.348389	807.552002
1421.465942	821.576782
1420.583374	895.079773
1419.700562	863.771729
1418.817627	971.220337
1417.934570	1044.658813
1417.051392	1115.241211
1416.167969	1157.498291
1415.284546	1267.650513
1414.400757	1208.019287
1413.516968	1057.893799
1412.633057	1023.772583
1411.748901	873.731201
1410.864624	797.247009
1409.980103	734.922607
1409.095459	760.229919
1408.210815	768.574585
1407.325806	737.364197
1406.440796	708.989258
1405.555542	669.327576
1404.670166	621.208557
1403.784668	671.917786
1402.899048	632.283081
1402.013184	634.995239
1401.127197	626.419556
1400.241089	654.522705
1399.354736	637.484375
1398.468262	659.935242
1397.581665	623.163635
1396.694946	656.886169
1395.807983	634.221680
1394.920898	645.384277
1394.033691	622.729614
1393.146362	631.072998
1392.258789	656.314270
1391.371094	594.241089
1390.483276	585.690125
1389.595337	636.263977
1388.707153	605.189880
1387.818848	579.755310
1386.930420	638.745239
1386.041748	582.366577
1385.152954	652.586975
1384.264038	587.788391
1383.375000	598.933472
1382.485718	581.960632
1381.596313	652.132019
1380.706787	581.757690
1379.817139	646.284729
1378.927246	623.696472
1378.037231	609.542969
1377.147095	606.628174
1376.256714	620.562195
1375.366333	648.528809
1374.475586	634.380737
1373.584839	693.206604
1372.693970	659.413513
1371.802856	681.742676
1370.911499	692.843811
1370.020142	698.332031
1369.128540	678.581726
1368.236816	672.856201
1367.344971	681.147949
1366.453003	697.844604
1365.560791	694.920715
1364.668457	658.378418
1363.775879	630.252258
1362.883301	683.354248
1361.990479	621.631775
1361.097534	629.922180
1360.204346	610.218018
1359.311035	618.507446
1358.417603	649.179504
1357.524048	679.840820
1356.630249	637.763916
1355.736450	590.108215
1354.842285	665.503418
1353.948120	561.944580
1353.053711	600.979980
1352.159180	617.643555
1351.264526	628.712708
1350.369751	634.190430
1349.474731	558.660461
1348.579590	566.941223
1347.684204	608.726990
1346.788818	630.955261
1345.893188	683.880615
1344.997314	655.852417
1344.101440	636.205139
1343.205322	658.412964
1342.309082	663.876648
1341.412720	641.449219
1340.516113	568.838074
1339.619385	663.528381
1338.722534	682.924438
1337.825439	627.065735
1336.928223	590.731934
1336.030884	598.986511
1335.133423	612.809204
1334.235718	623.841980
1333.337891	601.456665
1332.439941	626.407715
1331.541870	670.834839
1330.643555	637.320679
1329.745117	651.122009
1328.846436	623.187134
1327.947754	636.986023
1327.048828	622.968994
1326.149780	631.201782
1325.250488	658.892639
1324.351074	667.116211
1323.451538	686.453491
1322.551880	669.661194
1321.651978	686.213074
1320.751953	713.869873
1319.851807	705.413208
1318.951416	663.638672
1318.050903	730.152222
1317.150269	702.266724
1316.249512	671.615662
1315.348511	665.948425
1314.447388	679.703186
1313.546021	693.453125
1312.644653	671.145020
1311.743042	701.528625
1310.841309	751.307983
1309.939331	745.632568
1309.037231	723.330750
1308.135010	742.600220
1307.232666	784.026184
1306.330078	734.030029
1305.427368	731.131836
1304.524536	775.306885
1303.621460	777.939392
1302.718262	827.626587
1301.814941	855.156372
1300.911499	882.676453
1300.007813	860.389404
1299.104004	959.815857
1298.199951	1073.035156
1297.295898	1285.757202
1296.391602	1678.102539
1295.487061	2100.715088
1294.582520	2581.215332
1293.677734	2702.339844
1292.772827	2334.433838
1291.867676	1800.927490
1290.962402	1322.841675
1290.057007	1076.863647
1289.151489	969.007080
1288.245728	861.188416
1287.339844	833.439819
1286.433838	758.793701
1285.527588	678.656250
1284.621216	686.811890
1283.714722	689.449036
1282.808105	705.871765
1281.901245	711.261414
1280.994263	642.227905
1280.087036	606.288879
1279.179810	669.555969
1278.272217	680.457825
1277.364624	669.320618
1276.456787	652.679443
1275.548828	660.825073
1274.640747	696.497314
1273.732544	644.077942
1272.824097	602.684937
1271.915405	627.342468
1271.006714	627.232178
1270.097778	607.868103
1269.188721	629.761658
1268.279541	632.400452
1267.370117	662.529114
1266.460571	662.412598
1265.550781	599.089417
1264.640991	648.441406
1263.730957	557.671387
1262.820679	582.293274
1261.910400	584.937012
1260.999878	617.782471
1260.089233	636.890259
1259.178345	631.288696
1258.267334	548.850098
1257.356201	576.191162
1256.444824	573.346436
1255.533447	595.187927
1254.621704	589.598511
1253.709961	584.011047
1252.797974	622.287170
1251.885864	583.805359
1250.973633	575.481445
1250.061157	561.680542
1249.148560	572.539307
1248.235840	558.743774
1247.322876	572.337646
1246.409790	577.712769
1245.496582	525.598633
1244.583130	566.561157
1243.669556	571.934387
1242.755859	549.945251
1241.841919	577.203979
1240.927856	563.426819
1240.013672	546.919922
1239.099365	585.101196
1238.184814	522.124451
1237.270142	530.231873
1236.355225	538.336426
1235.440186	579.224365
1234.525024	524.488037
1233.609741	516.201904
1232.694214	540.687561
1231.778564	573.355347
1230.862671	567.794678
1229.946777	570.423828
1229.030640	553.950317
1228.114258	523.840881
1227.197876	507.381317
1226.281128	526.383423
1225.364380	556.286377
1224.447388	531.650513
1223.530273	610.608704
1222.613037	531.462891
1221.695557	542.268982
1220.777954	514.928345
1219.860229	544.801575
1218.942261	547.428894
1218.024170	552.778320
1217.105957	558.125854
1216.187500	563.471497
1215.268921	519.826355
1214.350220	546.945801
1213.431274	555.011108
1212.512207	595.715515
1211.593018	535.777283
1210.673706	530.244263
1209.754150	595.399902
1208.834351	538.211670
1207.914551	597.907288
1206.994507	502.696869
1206.074219	597.696045
1205.153931	551.412964
1204.233398	532.304626
1203.312744	491.480164
1202.391846	540.261108
1201.470825	529.308044
1200.549683	526.500549
1199.628296	558.968750
1198.706787	553.444031
1197.785156	539.783752
1196.863281	555.960327
1195.941284	542.304382
1195.019165	539.497437
1194.096802	539.402039
1193.174438	560.987305
1192.251709	585.274475
1191.328979	558.079712
1190.406006	555.272339
1189.482788	538.925110
1188.559570	536.122070
1187.636108	541.441589
1186.712402	533.225586
1185.788696	535.837463
1184.864746	516.802246
1183.940552	557.290161
1183.016357	559.896301
1182.091919	592.249207
1181.167236	527.251831
1180.242554	548.785522
1179.317505	548.688354
1178.392456	545.888794
1177.467163	529.580444
1176.541748	534.889587
1175.616211	591.515503
1174.690430	591.410767
1173.764526	577.805847
1172.838501	634.394043
1171.912231	618.087219
1170.985840	666.552368
1170.059204	723.094666
1169.132446	704.083069
1168.205566	749.809998
1167.278564	701.136902
1166.351318	657.873352
1165.423828	655.061035
1164.496338	617.211487
1163.568604	563.206665
1162.640747	579.272583
1161.712646	611.495667
1160.784424	552.133850
1159.856079	573.578796
1158.927490	573.477112
1157.998779	589.526794
1157.069946	578.656555
1156.140869	575.862976
1155.211670	548.856079
1154.282349	581.038635
1153.352783	548.661377
1152.423096	548.564026
1151.493164	559.220947
1150.563232	534.928955
1149.632935	497.207520
1148.702637	534.739075
1147.772095	580.317322
1146.841431	542.607849
1145.910522	580.111328
1144.979492	561.211792
1144.048340	569.166382
1143.116943	563.696777
1142.185425	617.272583
1141.253784	555.446655
1140.321899	595.590637
1139.389893	619.626160
1138.457764	627.561768
1137.525391	605.999023
1136.592896	632.700684
1135.660278	680.836548
1134.727417	771.835022
1133.794434	817.249512
1132.861206	892.117126
1131.927856	1047.314819
1130.994385	1272.087280
1130.060669	1542.299072
1129.126831	1702.652466
1128.192871	1814.769165
1127.258667	1699.371094
1126.324341	1581.338257
1125.389893	1326.910889
1124.455200	1126.068848
1123.520386	965.412292
1122.585327	933.155029
1121.650146	818.036316
1120.714844	772.452454
1119.779297	654.730713
1118.843628	694.692688
1117.907837	643.812134
1116.971802	659.723267
1116.035645	662.276367
1115.099365	638.128601
1114.162842	603.311340
1113.226196	600.534912
1112.289307	597.759460
1111.352417	621.665955
1110.415161	602.881958
1109.477905	586.771790
1108.540405	578.667297
1107.602661	575.898132
1106.664917	618.447083
1105.726807	594.349792
1104.788696	594.243958
1103.850342	626.109680
1102.911865	583.377014
1101.973145	577.946411
1101.034302	623.112366
1100.095337	599.039734
1099.156128	564.328003
1098.216797	585.519104
1097.277344	540.178162
1096.337646	564.026428
1095.397827	539.985718
1094.457764	638.292969
1093.517700	622.224731
1092.577271	592.869202
1091.636841	606.054199
1090.696167	621.892090
1089.755249	595.209412
1088.814209	605.730103
1087.873047	589.684692
1086.931763	589.579529
1085.990234	605.406189
1085.048584	554.856689
1084.106689	652.968445
1083.164673	623.659424
1082.222412	668.655884
1081.280151	642.007385
1080.337524	641.892883
1079.394897	649.734314
1078.452026	633.709351
1077.509033	652.153503
1076.565796	662.639343
1075.622437	622.769836
1074.678955	630.607544
1073.735229	670.232056
1072.791382	611.841797
1071.847290	669.992798
1070.903076	651.339172
1069.958740	677.695374
1069.014160	722.569519
1068.069458	688.038574
1067.124512	767.290588
1066.179565	862.386475
1065.234253	1007.701111
1064.288940	1163.541382
1063.343384	1451.523071
1062.397583	1543.785156
1061.451660	1546.152344
1060.505615	1556.446289
1059.559448	1381.792725
1058.613037	1230.975830
1057.666382	1053.801758
1056.719727	866.128296
1055.772827	792.048950
1054.825684	728.554810
1053.878418	683.557800
1052.931030	617.466919
1051.983398	678.036926
1051.035645	643.624207
1050.087769	585.487854
1049.139648	595.930603
1048.191406	611.642334
1047.242920	537.727295
1046.294312	616.694519
1045.345581	592.869446
1044.396606	558.514832
1043.447510	513.636353
1042.498291	503.010223
1041.548828	547.682739
1040.599121	497.565002
1039.649414	565.911804
1038.699341	534.230408
1037.749268	563.078064
1036.798950	528.777771
1035.848511	528.683105
1034.897827	533.848083
1033.947021	528.493835
1032.996094	552.058899
1032.044922	504.649200
1031.093506	504.558838
1030.142090	525.488037
1029.190430	522.766907
1028.238525	520.046814
1027.286499	504.197510
1026.334351	504.107178
1025.381958	527.642700
1024.429443	527.548157
1023.476807	537.950256
1022.523926	503.746033
1021.570923	543.003906
1020.617737	521.924683
1019.664368	532.320251
1018.710815	534.846619
1017.757080	521.644104
1016.803223	503.204620
1015.849121	461.188202
1014.894897	508.264069
1013.940491	536.986877
1012.985962	510.700806
1012.031189	500.135193
1011.076294	500.045502
1010.121216	494.720703
1009.165955	494.631958
1008.210510	512.859680
1007.254944	489.222229
1006.299133	520.522766
1005.343201	507.353271
1004.387085	538.639282
1003.430786	478.414093
1002.474365	499.238770
1001.517700	509.602570
1000.560913	457.253571
999.603943	467.621124
998.646790	506.716278
997.689514	511.848267
996.731995	493.479370
995.774353	488.169708
994.816528	501.132385
993.858521	451.460083
992.900330	529.652832
991.942017	490.427856
990.983459	495.556152
990.024780	471.997650
989.065918	529.272461
988.106873	492.682373
987.147705	518.657043
986.188293	484.687836
985.228760	497.627655
984.269043	489.723480
983.309143	494.844391
982.349060	505.171356
981.388794	476.441986
980.428406	473.753296
979.467834	460.655273
978.507019	494.399841
977.546082	515.124023
976.585022	489.019745
975.623718	501.935333
974.662292	486.243683
973.700623	517.353394
972.738831	496.466003
971.776855	485.981384
970.814758	452.115234
969.852417	488.404449
968.889954	480.524323
967.927246	433.692566
966.964417	485.544434
966.001404	475.072937
965.038208	487.965271
964.074890	511.233276
963.111328	467.032654
962.147644	446.195313
961.183777	521.332092
960.219727	513.458557
959.255493	490.031281
958.291077	479.573914
957.326538	476.895721
956.361755	479.401215
955.396851	541.496277
954.431763	515.494507
953.466492	435.112976
952.501038	476.466461
951.535461	499.681885
950.569641	541.008789
949.603699	499.501862
948.637573	499.411865
947.671265	527.780640
946.704773	455.258118
945.738098	499.141937
944.771240	519.738098
943.804260	462.767914
942.837097	496.287292
941.869751	449.679291
940.902222	454.766022
939.934509	465.017761
938.966614	493.346558
937.998535	516.500122
937.030334	508.660858
936.061951	526.640137
935.093323	456.855347
934.124573	529.030823
933.155640	469.591400
932.186584	492.724060
931.217285	513.269104
930.247864	466.758545
929.278198	513.083923
928.308411	494.946411
927.338440	505.166626
926.368286	507.652374
925.397949	476.643372
924.427429	507.469147
923.456787	507.377563
922.485901	489.260559
921.514893	463.426331
920.543701	483.935669
919.572327	501.863922
918.600769	509.492889
917.629028	486.246307
916.657104	527.314758
915.685059	527.219543
914.712769	488.554230
913.740356	503.891235
912.767761	501.229797
911.794983	506.279114
910.822021	498.479218
909.848877	506.096191
908.875549	516.278931
907.902039	464.823883
906.928406	487.848480
905.954590	490.327484
904.980530	485.105469
904.006348	520.945007
903.031982	479.798553
902.057434	536.148499
901.082703	505.273468
900.107849	451.330200
899.132751	474.323792
898.157532	463.984222
897.182068	492.093140
896.206482	550.942139
895.230713	532.908081
894.254761	494.387756
893.278625	501.981720
892.302307	535.179565
891.325806	512.040894
890.349182	511.948242
889.372314	478.584991
888.395325	532.233459
887.418091	527.020447
886.440735	493.672516
885.463196	519.157410
884.485474	519.063416
883.507568	506.186951
882.529480	531.655640
881.551270	521.337097
880.572815	521.242676
879.594238	518.593628
878.615417	518.499756
877.636475	556.711670
876.657349	513.205383
875.677979	538.640381
874.698486	520.676453
873.718811	530.789612
872.739014	548.553345
871.758972	505.087799
870.778748	533.051636
869.798401	484.504578
868.817810	494.614990
867.837097	486.878052
866.856140	509.727539
865.875061	560.598633
864.893799	519.733582
863.912354	550.206360
862.930725	516.998352
861.948914	524.543579
860.966919	506.627380
859.984741	491.263092
859.002441	542.072815
858.019897	539.430054
857.037231	480.819733
856.054321	516.342285
855.071289	506.076233
854.088074	498.356506
853.104614	470.302185
852.121033	475.300262
851.137268	503.167755
850.153320	531.025146
849.169189	510.606110
848.184937	492.734344
847.200439	469.790253
846.215759	472.243896
845.230896	495.004517
844.245911	487.300568
843.260681	525.275513
842.275330	512.494629
841.289795	479.425201
840.304016	481.874329
839.318115	458.965302
838.332031	466.487701
837.345764	522.168518
836.359314	519.539307
835.372681	468.767365
834.385864	504.150055
833.398865	488.860687
832.411743	468.511871
831.424377	514.003357
830.436829	493.657349
829.449158	473.318665
828.461243	521.315063
827.473206	506.039154
826.484924	500.887665
825.496521	510.913696
824.507935	505.763153
823.519104	536.011475
822.530151	480.300262
821.541016	457.465973
820.551697	497.814392
819.562195	480.038208
818.572510	462.268494
817.582642	500.068329
816.592590	545.429871
815.602356	482.213623
814.611938	507.368073
813.621399	479.514374
812.630615	504.660095
811.639648	486.908356
810.648560	456.551147
809.657227	486.731110
808.665771	537.071777
807.674072	441.175812
806.682251	478.903656
805.690186	501.497223
804.697998	458.572235
803.705566	491.237915
802.713013	486.111023
801.720276	488.540741
800.727356	493.487335
799.734253	500.949432
798.740906	493.307526
797.747437	513.348999
796.753784	470.484161
795.759949	533.285889
794.765930	492.948059
793.771729	470.226959
792.777344	482.711884
791.782776	465.028229
790.788025	469.969879
789.793091	457.320435
788.798035	492.409149
787.802734	457.153687
786.807251	454.558960
785.811584	502.183472
784.815796	489.539612
783.819763	499.490326
782.823547	476.813324
781.827148	481.744507
780.830627	423.958160
779.833862	474.044220
778.836975	511.573425
777.839844	483.900269
776.842529	503.866364
775.845093	458.660278
774.847412	496.164795
773.849609	498.579651
772.851563	465.924072
771.853394	468.343506
770.854980	468.258026
769.856445	440.632965
768.857666	468.087036
767.858765	510.547150
766.859680	470.418304
765.860352	435.307648
764.860901	535.280579
763.861206	475.162292
762.861389	502.579865
761.861389	462.489014
760.861145	447.407623
759.860779	442.327820
758.860168	427.255554
757.859436	474.641632
756.858521	459.568939
755.857361	476.965363
754.856079	476.878174
753.854614	464.309570
752.852905	491.678833
751.851074	469.130554
750.848999	471.539703
749.846802	468.959015
748.844421	488.825317
747.841797	506.190765
746.839050	476.181061
745.836121	471.108704
744.832947	471.022522
743.829651	490.870178
742.826111	463.376373
741.822449	488.199738
740.818604	498.071869
739.814514	473.081696
738.810303	448.100616
737.805847	450.507599
736.801270	500.195892
735.796448	517.520874
734.791504	462.698395
733.786316	477.536713
732.781006	484.909424
731.775452	494.765686
730.769775	447.444794
729.763855	472.216370
728.757751	506.918396
727.751526	474.527832
726.745056	504.248718
725.738403	476.837555
724.731628	486.682495
723.724609	471.697601
722.717407	484.022003
721.710083	531.085815
720.702515	441.663300
719.694763	518.487183
718.686829	466.304901
717.678711	488.538452
716.670410	515.722656
715.661987	468.527496
714.653320	485.791290
713.644470	451.009216
712.635437	498.001251
711.626221	478.092621
710.616821	500.295349
709.607178	487.822296
708.597412	465.450623
707.587463	475.266632
706.577332	477.654358
705.567017	462.720093
704.556458	484.901062
703.545776	445.235596
702.534912	487.196198
701.523804	452.490082
700.512573	462.295715
699.501099	481.984589
698.489502	472.011078
697.477661	429.920685
696.465698	484.189575
695.453491	449.522064
694.441101	446.970062
693.428589	478.984924
692.415833	488.771149
691.402893	471.404755
690.389771	444.174194
689.376465	461.362885
688.362976	495.812347
687.349304	436.530670
686.335449	507.959290
685.321411	461.023956
684.307190	443.684845
683.292725	470.712402
682.278137	475.553925
681.263367	490.247864
680.248352	480.305359
679.233215	448.202606
678.217834	475.204376
677.202332	484.964020
676.186584	462.723206
675.170654	428.186340
674.154541	482.236176
673.138306	477.227631
672.121826	455.004486
671.105164	452.461792
670.088318	494.174408
669.071289	479.334747
668.054016	444.839111
667.036621	464.415070
666.019043	439.761902
665.001282	483.894714
663.983276	466.614594
662.965149	476.350403
661.946777	441.893250
660.928223	444.266418
659.909546	466.271179
658.890625	485.814209
657.871521	507.803162
656.852234	441.486664
655.832764	446.309875
654.813110	424.161499
653.793274	428.986084
652.773254	477.925018
651.752991	433.728973
650.732605	482.648956
649.711975	475.211426
648.691223	435.938416
647.670227	433.409454
646.649048	465.156067
645.627747	489.547729
644.606201	479.668365
643.584473	484.473633
642.562561	508.848206
641.540466	516.092224
640.518127	498.878693
639.495667	467.001312
638.473022	432.691040
637.450134	466.829132
636.427063	498.510895
635.403870	471.543427
634.380432	520.312073
633.356812	508.004456
632.333008	476.166321
631.309021	402.835663
630.284851	446.698944
629.260498	456.378632
628.235901	441.653961
627.211182	453.770599
626.186218	495.152893
625.161133	463.358063
624.135803	465.710815
623.110291	480.251831
622.084595	467.976288
621.058716	477.637604
620.032654	465.367035
619.006409	472.589203
617.979919	450.581757
616.953308	455.368805
615.926453	528.325012
614.899414	467.371765
613.872253	462.417877
612.844849	491.532410
611.817261	447.649780
610.789490	493.783264
609.761475	459.644318
608.733337	505.758484
607.705017	457.043396
606.676453	476.403992
605.647705	461.734833
604.618774	473.798157
603.589722	463.993439
602.560425	471.194183
601.530884	490.534180
600.501221	454.024414
599.471375	502.490265
598.441284	470.845825
597.411011	444.066254
596.380615	492.506989
595.349976	485.138794
594.319153	489.899567
593.288147	480.109741
592.256897	487.293976
591.225525	472.660431
590.193970	484.690247
589.162170	494.292572
588.130188	499.046204
587.098022	520.752808
586.065674	477.066589
585.033142	496.347961
584.000427	464.786194
582.967468	452.598572
581.934387	483.973053
580.901062	481.464020
579.867554	462.023102
578.833862	478.867218
577.799988	452.179718
576.765930	507.701355
575.731628	539.030640
574.697205	519.596985
573.662537	497.754150
572.627747	500.077789
571.592712	492.738983
570.557434	482.987915
569.522034	463.582489
568.486450	446.598267
567.450623	470.651459
566.414673	465.737946
565.378479	489.778625
564.342102	492.100098
563.305542	467.890778
562.268799	494.329010
561.231812	479.771881
560.194702	479.682922
559.157349	486.824005
558.119812	563.840088
557.082092	498.689087
556.044189	479.327148
555.006042	517.769958
553.967773	510.450562
552.929260	481.467773
551.890625	488.599121
550.851746	517.385803
549.812683	459.545837
548.773376	495.543823
547.733948	495.451843
546.694275	500.169220
545.654419	512.097412
544.614441	475.945862
543.574158	519.117249
542.533752	526.229492
541.493164	499.705109
540.452332	514.024170
539.411316	487.511841
538.370178	523.437622
537.328735	511.337219
536.287170	482.439850
535.245422	532.744995
534.203430	527.847412
533.161255	465.378998
532.118896	537.244934
531.076355	472.399963
530.033630	469.914642
528.990723	505.783478
527.947571	464.946716
526.904236	500.803101
525.860718	476.752594
524.817017	457.501587
523.773132	517.287781
522.729004	521.980408
521.684692	505.125641
520.640198	543.327942
519.595520	507.330841
518.550659	497.665985
517.505615	545.416992
516.460327	509.439545
515.414856	514.127319
514.369202	485.341553
513.323364	509.155243
512.277283	477.991089
511.231079	470.733582
510.184631	492.147583
509.138000	489.667358
508.091187	484.799866
507.044159	472.770966
505.996948	482.232086
504.949554	472.594940
503.901947	479.666138
502.854126	453.331329
501.806152	472.330994
500.757965	539.024841
499.709564	465.001190
